Data from LampG_AbsoluteIrradiance_09-53-00-107.txt Node
Date: Thu Aug 02 09:53:00 EDT 2018
User: ORCAIIP
Spectrometer: OFX00466
Trigger mode: 0
Integration Time (sec): 4.000000E-3
Scans to average: 250
Nonlinearity correction enabled: false
Boxcar width: 0
Storing dark spectrum: false
XAxis mode: Wavelengths
Number of Pixels in Spectrum: 2136
>>>>>Begin Spectral Data<<<<<
160.337	-0
160.809	-0
161.28	-0
161.752	-0
162.224	-0
162.695	-0
163.166	-0
163.638	0
164.109	-0
164.58	-0
165.052	-0
165.523	-0
165.994	-0
166.465	-0
166.936	-0
167.407	-0
167.877	-0
168.348	-0
168.819	-0
169.29	-0
169.76	-0
170.231	-0
170.701	-0
171.172	-0
171.642	-0
172.112	-0
172.582	-0
173.053	-0
173.523	-0
173.993	-0
174.463	-0
174.933	-0
175.403	-0
175.872	-0
176.342	-0
176.812	-0
177.282	-0
177.751	-0
178.221	-0
178.69	-0
179.159	-0
179.629	-0
180.098	-0
180.567	-0
181.036	-0
181.506	-0
181.975	-0
182.444	-0
182.912	-0
183.381	-0
183.85	-0
184.319	-0
184.788	-0
185.256	-0
185.725	-0
186.193	-0
186.662	-0
187.13	-0
187.598	-0
188.067	-0
188.535	-0
189.003	-0
189.471	-0
189.939	-0
190.407	-0
190.875	-0
191.343	-0
191.811	-0
192.278	-0
192.746	-0
193.214	-0
193.681	-0
194.149	-0
194.616	-0
195.083	-0
195.551	-0
196.018	-0
196.485	-0
196.952	-0
197.419	-0
197.886	-0
198.353	-0
198.82	-0
199.287	-0
199.754	-0
200.221	-0
200.687	-0
201.154	-0.16
201.62	-0.48
202.087	-0.19
202.553	-0.66
203.02	-0.75
203.486	-0.79
203.952	-0.68
204.418	-0.85
204.885	-0.83
205.351	-0.8
205.817	-0.48
206.283	-0.75
206.748	-0.48
207.214	-0.47
207.68	-0.53
208.146	-0.48
208.611	-0.45
209.077	-0.58
209.543	-0.53
210.008	-0.42
210.473	-0.4
210.939	-0.37
211.404	-0.39
211.869	-0.33
212.334	-0.36
212.8	-0.29
213.265	-0.26
213.73	-0.33
214.195	-0.25
214.659	-0.4
215.124	-0.28
215.589	-0.34
216.054	-0.25
216.518	-0.33
216.983	-0.32
217.448	-0.24
217.912	-0.22
218.376	-0.23
218.841	-0.25
219.305	-0.27
219.769	-0.3
220.233	-0.29
220.698	-0.11
221.162	-0.24
221.626	-0.23
222.089	-0.24
222.553	-0.17
223.017	-0.19
223.481	-0.21
223.945	-0.16
224.408	-0.2
224.872	-0.17
225.335	-0.16
225.799	-0.18
226.262	-0.15
226.726	-0.17
227.189	-0.15
227.652	-0.14
228.115	-0.16
228.578	-0.1
229.041	-0.16
229.504	-0.15
229.967	-0.17
230.43	-0.15
230.893	-0.14
231.356	-0.16
231.818	-0.15
232.281	-0.19
232.744	-0.12
233.206	-0.13
233.669	-0.12
234.131	-0.11
234.593	-0.13
235.056	-0.14
235.518	-0.17
235.98	-0.14
236.442	-0.16
236.904	-0.12
237.366	-0.11
237.828	-0.16
238.29	-0.13
238.752	-0.13
239.214	-0.14
239.675	-0.1
240.137	-0.1
240.598	-0.12
241.06	-0.09
241.521	-0.14
241.983	-0.15
242.444	-0.11
242.905	-0.12
243.367	-0.09
243.828	-0.1
244.289	-0.14
244.75	-0.15
245.211	-0.08
245.672	-0.11
246.133	-0.09
246.594	-0.08
247.054	-0.09
247.515	-0.11
247.976	-0.1
248.436	-0.11
248.897	-0.09
249.357	-0.08
249.818	-0.1
250.278	-0.09
250.738	-0.1
251.198	-0.11
251.659	-0.1
252.119	-0.11
252.579	-0.12
253.039	-0.1
253.499	-0.09
253.958	-0.1
254.418	-0.09
254.878	-0.1
255.338	-0.09
255.797	-0.1
256.257	-0.11
256.716	-0.09
257.176	-0.13
257.635	-0.11
258.095	-0.11
258.554	-0.08
259.013	-0.09
259.472	-0.09
259.931	-0.08
260.391	-0.12
260.85	-0.11
261.308	-0.09
261.767	-0.1
262.226	-0.11
262.685	-0.08
263.144	-0.09
263.602	-0.12
264.061	-0.1
264.519	-0.11
264.978	-0.11
265.436	-0.11
265.895	-0.13
266.353	-0.12
266.811	-0.11
267.269	-0.08
267.727	-0.06
268.185	-0.11
268.643	-0.1
269.101	-0.09
269.559	-0.09
270.017	-0.06
270.475	-0.07
270.933	-0.09
271.39	-0.1
271.848	-0.08
272.305	-0.08
272.763	-0.11
273.22	-0.05
273.678	-0.08
274.135	-0.09
274.592	-0.09
275.049	-0.07
275.506	-0.11
275.963	-0.07
276.42	-0.09
276.877	-0.08
277.334	-0.08
277.791	-0.08
278.248	-0.08
278.705	-0.05
279.161	-0.06
279.618	-0.1
280.074	-0.08
280.531	-0.07
280.987	-0.08
281.444	-0.07
281.9	-0.08
282.356	-0.08
282.812	-0.05
283.268	-0.1
283.725	-0.06
284.181	-0.06
284.636	-0.07
285.092	-0.07
285.548	-0.05
286.004	-0.08
286.46	-0.05
286.915	-0.06
287.371	-0.07
287.827	-0.06
288.282	-0.07
288.737	-0.06
289.193	-0.07
289.648	-0.05
290.103	-0.06
290.559	-0.06
291.014	-0.06
291.469	-0.06
291.924	-0.06
292.379	-0.05
292.834	-0.06
293.289	-0.06
293.743	-0.07
294.198	-0.04
294.653	-0.05
295.107	-0.07
295.562	-0.05
296.016	-0.05
296.471	-0.04
296.925	-0.04
297.38	-0.04
297.834	-0.05
298.288	-0.05
298.742	-0.04
299.196	-0.03
299.65	-0.03
300.104	-0.04
300.558	-0.04
301.012	-0.02
301.466	-0.04
301.92	-0.04
302.373	-0.04
302.827	-0.02
303.281	-0.03
303.734	-0.03
304.188	-0.03
304.641	-0.05
305.094	-0.04
305.548	-0.03
306.001	-0.04
306.454	-0.03
306.907	-0.03
307.36	-0.04
307.813	-0.03
308.266	-0.02
308.719	-0.04
309.172	-0.02
309.624	-0.04
310.077	-0.04
310.53	-0.04
310.982	-0.01
311.435	-0.04
311.887	-0.03
312.34	-0.04
312.792	-0.05
313.244	-0.03
313.697	-0.04
314.149	-0.02
314.601	-0.03
315.053	-0.01
315.505	-0.03
315.957	-0.03
316.409	-0.03
316.861	-0.03
317.313	-0.04
317.764	-0.02
318.216	-0.03
318.668	-0.03
319.119	-0.03
319.571	-0.01
320.022	-0.04
320.473	-0.02
320.925	-0.02
321.376	-0.03
321.827	-0.04
322.278	-0.05
322.729	-0.04
323.18	-0.03
323.631	-0.05
324.082	-0.03
324.533	-0.03
324.984	-0.04
325.435	-0.04
325.885	-0.04
326.336	-0.02
326.787	-0.02
327.237	-0.02
327.687	-0.04
328.138	-0.02
328.588	-0.05
329.038	-0.02
329.489	-0.02
329.939	-0.03
330.389	-0.03
330.839	-0.04
331.289	-0.03
331.739	-0.03
332.189	-0.02
332.639	-0.02
333.088	-0.02
333.538	-0.03
333.988	-0.03
334.437	-0.04
334.887	-0.02
335.336	-0.02
335.786	-0.02
336.235	-0.03
336.684	-0.03
337.134	-0.02
337.583	-0.02
338.032	-0.02
338.481	-0.03
338.93	-0.01
339.379	-0.02
339.828	-0.01
340.277	-0.01
340.725	-0.02
341.174	-0.01
341.623	-0.02
342.071	-0.02
342.52	-0.02
342.969	-0.02
343.417	-0.03
343.865	-0.02
344.314	-0.03
344.762	-0.02
345.21	-0.01
345.658	-0.03
346.106	-0.02
346.554	-0.02
347.002	-0.02
347.45	-0.03
347.898	-0.03
348.346	-0.02
348.794	-0.02
349.241	-0.02
349.689	-0.01
350.137	-0.02
350.584	-0.03
351.032	-0.01
351.479	-0.02
351.926	-0.03
352.374	-0.01
352.821	-0.01
353.268	-0.03
353.715	-0.02
354.162	-0.02
354.609	-0.02
355.056	-0.02
355.503	-0.02
355.95	-0.01
356.397	-0.02
356.843	-0.02
357.29	-0.03
357.737	-0.03
358.183	-0.03
358.63	-0.04
359.076	-0.01
359.522	-0.02
359.969	-0.02
360.415	-0.03
360.861	-0.02
361.307	-0.02
361.754	-0.01
362.2	-0.01
362.646	-0.02
363.091	-0.03
363.537	-0.03
363.983	-0.04
364.429	-0.02
364.875	-0.03
365.32	-0.03
365.766	-0.01
366.211	-0.02
366.657	-0.02
367.102	-0.02
367.547	-0.03
367.993	-0.02
368.438	-0.02
368.883	-0.01
369.328	-0.02
369.773	-0.04
370.218	-0.02
370.663	-0.02
371.108	-0.02
371.553	-0.02
371.998	-0.03
372.442	-0.02
372.887	-0.03
373.332	-0.02
373.776	-0.02
374.221	-0.02
374.665	-0.01
375.11	-0.02
375.554	-0.02
375.998	-0.02
376.442	-0.02
376.887	-0.02
377.331	-0.02
377.775	-0.02
378.219	-0.02
378.663	-0.01
379.106	-0.02
379.55	-0.01
379.994	-0.02
380.438	-0.01
380.881	-0.02
381.325	-0.02
381.768	-0.01
382.212	-0.02
382.655	-0.02
383.099	-0.01
383.542	-0.02
383.985	-0.01
384.428	-0.01
384.871	-0.01
385.315	-0.01
385.758	-0.01
386.201	-0.01
386.643	-0
387.086	-0.02
387.529	-0.01
387.972	-0.02
388.414	-0.01
388.857	-0.01
389.3	-0.01
389.742	-0.01
390.185	-0
390.627	-0.01
391.069	-0.02
391.512	-0.01
391.954	-0.01
392.396	-0.01
392.838	-0.01
393.28	-0.01
393.722	-0.01
394.164	-0.01
394.606	-0.01
395.048	-0.01
395.489	-0.01
395.931	-0.01
396.373	-0.02
396.814	-0.01
397.256	-0.01
397.697	-0.02
398.139	-0.01
398.58	-0.01
399.021	-0.01
399.463	-0.02
399.904	-0.01
400.345	-0.02
400.786	-0.01
401.227	-0.02
401.668	-0.01
402.109	-0.01
402.55	-0
402.991	-0.01
403.431	-0.01
403.872	-0.02
404.313	-0.01
404.753	-0
405.194	-0.01
405.634	-0.01
406.075	-0.01
406.515	-0.01
406.955	-0.02
407.396	-0.01
407.836	-0.02
408.276	-0.01
408.716	-0.01
409.156	-0.01
409.596	-0.01
410.036	-0.02
410.476	-0.01
410.915	-0.01
411.355	-0.01
411.795	-0.02
412.234	-0.01
412.674	-0.02
413.114	-0.01
413.553	-0.02
413.992	-0.02
414.432	-0.02
414.871	-0.01
415.31	-0.01
415.749	-0.01
416.188	-0.01
416.628	-0.01
417.067	-0.02
417.505	-0.01
417.944	-0.02
418.383	-0.03
418.822	-0.01
419.261	-0.02
419.699	-0.02
420.138	-0.02
420.576	-0.01
421.015	-0.02
421.453	-0.01
421.892	-0.02
422.33	-0.02
422.768	-0.02
423.207	-0.01
423.645	-0.01
424.083	-0.01
424.521	-0.01
424.959	-0.01
425.397	-0.01
425.835	-0
426.272	-0
426.71	-0.01
427.148	-0.01
427.585	-0.01
428.023	-0
428.461	-0.02
428.898	-0.02
429.335	-0.02
429.773	-0.01
430.21	-0.01
430.647	-0.01
431.085	-0.02
431.522	-0.02
431.959	-0.02
432.396	-0
432.833	-0.02
433.27	-0.01
433.707	-0
434.143	-0.02
434.58	-0.01
435.017	-0.02
435.453	-0.03
435.89	-0.02
436.327	-0.02
436.763	-0.01
437.199	-0.01
437.636	-0.01
438.072	-0.01
438.508	-0
438.944	-0.01
439.381	-0.03
439.817	-0.02
440.253	-0.01
440.689	-0.02
441.125	-0.01
441.56	-0
441.996	-0.01
442.432	-0.01
442.868	-0.01
443.303	-0.02
443.739	0.02
444.174	-0.02
444.61	-0.02
445.045	-0.02
445.48	-0.01
445.916	-0.01
446.351	-0.01
446.786	-0.01
447.221	-0.01
447.656	-0.01
448.091	-0
448.526	-0
448.961	-0.01
449.396	-0.01
449.831	-0.01
450.266	-0.01
450.7	-0.02
451.135	-0.01
451.569	-0.01
452.004	-0.01
452.438	-0.01
452.873	-0.01
453.307	-0.01
453.741	-0.02
454.176	-0.01
454.61	-0.01
455.044	-0.02
455.478	-0.01
455.912	-0.01
456.346	-0.01
456.78	-0.01
457.214	-0.02
457.647	-0.01
458.081	-0.01
458.515	-0.01
458.948	0
459.382	-0.01
459.815	-0.01
460.249	-0.01
460.682	-0.02
461.116	-0.02
461.549	-0.01
461.982	-0.01
462.415	-0.01
462.848	-0.01
463.281	-0.02
463.714	-0.01
464.147	-0.01
464.58	-0.01
465.013	-0.01
465.446	-0.01
465.879	-0.01
466.311	-0.01
466.744	-0.01
467.176	-0.01
467.609	-0.01
468.041	-0.01
468.474	-0.01
468.906	-0.01
469.338	-0.02
469.771	-0.02
470.203	-0.02
470.635	-0.01
471.067	-0.01
471.499	-0.01
471.931	-0.02
472.363	-0.01
472.795	-0.02
473.226	-0.02
473.658	-0.01
474.09	-0.01
474.521	-0.02
474.953	-0.03
475.384	-0.01
475.816	-0.01
476.247	-0.01
476.679	-0.01
477.11	-0.02
477.541	-0.02
477.972	-0.01
478.403	-0.01
478.834	-0.02
479.265	-0.01
479.696	-0.01
480.127	-0.01
480.558	-0.01
480.989	-0.02
481.42	-0.01
481.85	-0.01
482.281	-0.02
482.711	-0.01
483.142	-0.02
483.572	-0
484.003	-0.02
484.433	-0.02
484.863	-0.02
485.294	-0.02
485.724	-0.01
486.154	-0.01
486.584	-0.02
487.014	-0.02
487.444	-0.02
487.874	-0.02
488.304	-0.02
488.733	-0.03
489.163	-0.02
489.593	-0.01
490.022	-0.02
490.452	-0.02
490.881	-0.02
491.311	-0.02
491.74	-0.02
492.17	-0.01
492.599	-0.03
493.028	-0.01
493.457	-0.01
493.886	-0.02
494.316	-0.02
494.745	-0.03
495.173	-0.03
495.602	-0.01
496.031	-0.03
496.46	-0.02
496.889	-0.02
497.317	-0.02
497.746	-0.02
498.175	-0.02
498.603	-0.02
499.032	-0.01
499.46	-0.03
499.888	-0.02
500.317	-0.02
500.745	-0.02
501.173	-0.02
501.601	-0.02
502.029	-0.01
502.457	-0.01
502.885	-0.02
503.313	-0.01
503.741	-0.02
504.169	-0.01
504.596	-0.01
505.024	-0.01
505.452	-0.03
505.879	-0.02
506.307	-0.01
506.734	-0.01
507.162	-0.01
507.589	-0.01
508.016	-0.02
508.444	-0.03
508.871	-0.01
509.298	-0.02
509.725	-0.02
510.152	-0.03
510.579	-0.02
511.006	-0.03
511.433	-0.02
511.86	-0.02
512.286	-0.02
512.713	-0.02
513.14	-0.02
513.566	-0.02
513.993	-0.02
514.419	-0.02
514.846	-0.01
515.272	-0.01
515.698	-0.02
516.125	-0.01
516.551	-0.02
516.977	-0.02
517.403	-0.01
517.829	-0.02
518.255	-0.01
518.681	-0.01
519.107	-0.01
519.533	-0.01
519.958	-0.01
520.384	-0
520.81	-0.02
521.235	-0.02
521.661	-0.02
522.086	-0.01
522.512	-0.01
522.937	-0.02
523.362	-0.02
523.788	-0.01
524.213	-0.01
524.638	-0.02
525.063	-0.01
525.488	-0.02
525.913	-0.02
526.338	-0.02
526.763	-0.01
527.188	-0.01
527.613	-0.02
528.037	-0.02
528.462	-0.01
528.887	-0.02
529.311	-0.01
529.736	-0.01
530.16	-0.01
530.585	-0.01
531.009	-0.01
531.433	-0.01
531.857	-0.02
532.282	-0.02
532.706	-0.03
533.13	-0.02
533.554	-0.01
533.978	-0.02
534.402	-0.01
534.825	-0.01
535.249	-0.01
535.673	-0.01
536.097	-0.01
536.52	-0.02
536.944	-0.01
537.367	-0.01
537.791	-0.02
538.214	-0.01
538.638	-0.03
539.061	-0.01
539.484	-0.01
539.907	-0.02
540.33	-0.02
540.754	-0.02
541.177	-0.03
541.6	-0.02
542.022	-0.03
542.445	-0.02
542.868	-0.02
543.291	-0.01
543.714	-0.02
544.136	-0.03
544.559	-0.01
544.981	-0.01
545.404	-0.01
545.826	-0.02
546.249	-0.02
546.671	-0.02
547.093	-0.02
547.515	-0.03
547.938	-0.01
548.36	-0.01
548.782	-0.02
549.204	-0.03
549.626	-0.01
550.048	-0.03
550.469	-0.01
550.891	-0.01
551.313	-0.02
551.734	-0.02
552.156	-0.01
552.578	-0.03
552.999	-0.01
553.421	-0.01
553.842	-0.02
554.263	-0.01
554.685	-0.01
555.106	-0.01
555.527	-0.01
555.948	-0.02
556.369	-0.01
556.79	-0.02
557.211	-0.02
557.632	-0.01
558.053	-0.01
558.474	-0.01
558.894	-0.02
559.315	-0.02
559.736	-0.03
560.156	-0.01
560.577	-0.01
560.997	-0.01
561.418	-0.03
561.838	-0.02
562.258	-0.01
562.679	-0.02
563.099	-0.01
563.519	-0.02
563.939	-0.02
564.359	-0.01
564.779	-0.02
565.199	-0.02
565.619	-0.02
566.039	-0.02
566.459	-0.02
566.878	-0.01
567.298	-0.02
567.717	-0.02
568.137	-0.02
568.557	-0.02
568.976	-0.01
569.395	-0.01
569.815	-0.02
570.234	-0.01
570.653	-0.02
571.072	-0.02
571.491	-0.01
571.911	-0.02
572.33	-0.02
572.748	-0.02
573.167	-0.02
573.586	-0.02
574.005	-0.01
574.424	-0.01
574.842	-0.02
575.261	-0.02
575.68	-0.01
576.098	-0.02
576.517	-0.01
576.935	-0.03
577.353	-0.01
577.772	-0.01
578.19	-0.02
578.608	-0.01
579.026	-0.02
579.444	-0.01
579.862	-0.02
580.28	-0.02
580.698	-0.01
581.116	-0.01
581.534	-0.02
581.952	-0.02
582.369	-0.01
582.787	-0.01
583.205	-0.01
583.622	-0.01
584.04	-0.02
584.457	-0.01
584.875	-0.02
585.292	-0.01
585.709	-0.02
586.126	-0.02
586.544	-0.02
586.961	-0.01
587.378	-0.01
587.795	-0.01
588.212	-0.02
588.629	-0.02
589.046	-0.02
589.462	-0.01
589.879	-0.01
590.296	-0.01
590.712	-0.01
591.129	-0.01
591.546	-0.02
591.962	-0.02
592.378	-0.02
592.795	-0.02
593.211	-0.03
593.627	-0.01
594.044	-0.03
594.46	-0.02
594.876	-0.02
595.292	-0.03
595.708	-0.02
596.124	-0.02
596.54	-0.02
596.955	-0.03
597.371	-0.03
597.787	-0.03
598.203	-0.03
598.618	-0.02
599.034	-0.03
599.449	-0.02
599.865	-0.01
600.28	-0.01
600.696	-0.03
601.111	0
601.526	-0.02
601.941	-0.03
602.356	-0.02
602.771	-0.03
603.186	-0.02
603.601	-0.02
604.016	-0.03
604.431	-0.02
604.846	-0.02
605.261	-0.02
605.675	-0.01
606.09	-0.01
606.505	-0.02
606.919	-0.02
607.334	-0.03
607.748	-0.02
608.163	-0.03
608.577	-0.02
608.991	-0.04
609.405	-0.02
609.82	-0.04
610.234	-0.01
610.648	-0.03
611.062	-0.02
611.476	-0.02
611.89	-0.02
612.303	-0.02
612.717	-0.03
613.131	-0.02
613.545	-0.02
613.958	-0.04
614.372	-0.03
614.785	-0.04
615.199	-0.03
615.612	-0.03
616.026	-0.02
616.439	-0.03
616.852	-0.02
617.265	-0.03
617.679	-0.02
618.092	-0.02
618.505	-0.01
618.918	-0.02
619.331	-0.03
619.744	-0.04
620.156	-0.03
620.569	-0.03
620.982	-0.03
621.395	-0.03
621.807	-0.03
622.22	-0.03
622.632	-0.02
623.045	-0.02
623.457	-0.03
623.869	-0.01
624.282	-0.01
624.694	-0.04
625.106	-0.04
625.518	-0.04
625.93	-0.03
626.342	-0.03
626.754	-0.01
627.166	-0.02
627.578	-0.03
627.99	-0.02
628.402	-0.02
628.814	0
629.225	-0.02
629.637	-0.04
630.048	-0.02
630.46	-0.03
630.871	-0.03
631.283	-0.02
631.694	-0.03
632.105	-0.02
632.517	-0.03
632.928	-0.04
633.339	-0.03
633.75	-0.04
634.161	-0.02
634.572	-0.02
634.983	-0.03
635.394	-0.01
635.805	-0.02
636.215	-0.02
636.626	-0.02
637.037	-0.02
637.447	-0.03
637.858	-0.03
638.268	-0.03
638.679	-0.03
639.089	-0.03
639.499	-0.02
639.91	-0.03
640.32	-0.02
640.73	-0.03
641.14	-0.03
641.55	-0.02
641.96	-0.03
642.37	-0.03
642.78	-0.01
643.19	-0.03
643.6	-0.03
644.01	-0.02
644.419	-0.02
644.829	-0.04
645.238	-0.03
645.648	-0.04
646.058	-0.03
646.467	-0.03
646.876	-0.02
647.286	-0.03
647.695	-0.03
648.104	-0.01
648.513	-0.03
648.922	-0.02
649.331	-0.02
649.74	-0.02
650.149	-0.01
650.558	-0.02
650.967	-0.03
651.376	-0.02
651.785	-0.02
652.193	-0.04
652.602	-0.03
653.011	-0.02
653.419	-0.02
653.828	-0.03
654.236	-0.03
654.644	-0.02
655.053	-0.02
655.461	-0.03
655.869	-0.02
656.277	-0.02
656.686	-0.03
657.094	-0.03
657.502	-0.02
657.91	-0.02
658.317	-0.03
658.725	-0.03
659.133	-0.03
659.541	0
659.949	-0.01
660.356	-0.02
660.764	-0.02
661.171	-0.03
661.579	-0.04
661.986	-0.02
662.394	-0.04
662.801	-0.03
663.208	-0.04
663.615	-0.01
664.023	-0.04
664.43	-0.03
664.837	-0.04
665.244	-0.04
665.651	-0.04
666.058	-0.03
666.464	-0.04
666.871	-0.03
667.278	-0.03
667.685	-0.02
668.091	-0.04
668.498	-0.04
668.904	-0.02
669.311	-0.04
669.717	-0.04
670.124	-0.04
670.53	-0.03
670.936	-0.03
671.342	-0.03
671.749	-0.05
672.155	-0.04
672.561	-0.03
672.967	-0.02
673.373	-0.03
673.779	-0.02
674.184	-0.02
674.59	-0.03
674.996	-0.04
675.402	-0.02
675.807	-0.05
676.213	-0.02
676.618	-0.02
677.024	-0.02
677.429	-0.03
677.835	-0.03
678.24	-0.03
678.645	-0.03
679.051	-0.04
679.456	-0.02
679.861	-0.03
680.266	-0.02
680.671	-0.03
681.076	-0.03
681.481	-0.04
681.886	-0.03
682.29	-0.03
682.695	-0.03
683.1	-0.03
683.504	-0.03
683.909	-0.03
684.314	-0.02
684.718	-0.02
685.123	-0.03
685.527	-0.03
685.931	-0.05
686.335	-0.03
686.74	-0.04
687.144	-0.01
687.548	-0.03
687.952	-0.04
688.356	0
688.76	-0.03
689.164	-0.03
689.568	-0.02
689.972	-0.04
690.375	-0.03
690.779	-0.03
691.183	-0.04
691.586	-0.05
691.99	-0.02
692.393	-0.03
692.797	-0.04
693.2	-0.01
693.604	-0.02
694.007	-0.03
694.41	-0.04
694.813	-0.02
695.216	-0.05
695.619	-0.01
696.022	-0.03
696.425	-0.03
696.828	-0.03
697.231	-0.03
697.634	-0.02
698.037	-0.03
698.439	-0.02
698.842	-0.04
699.245	-0.03
699.647	-0.03
700.05	-0.02
700.452	-0.04
700.855	-0.03
701.257	-0.03
701.659	-0.03
702.061	-0.03
702.464	-0.02
702.866	-0.02
703.268	-0.03
703.67	-0.03
704.072	-0.02
704.474	-0.03
704.876	-0.02
705.278	-0.03
705.679	-0.03
706.081	-0.04
706.483	-0.03
706.884	-0.01
707.286	-0.04
707.687	-0.03
708.089	-0.01
708.49	-0.03
708.892	-0.03
709.293	-0.03
709.694	-0.03
710.095	-0.04
710.497	-0.02
710.898	-0.03
711.299	-0.04
711.7	-0.03
712.101	-0.03
712.501	-0.02
712.902	-0.02
713.303	-0.04
713.704	-0.02
714.105	-0.05
714.505	-0.03
714.906	-0.04
715.306	-0.02
715.707	-0.03
716.107	-0.04
716.508	-0.03
716.908	-0.05
717.308	-0.04
717.708	-0.05
718.108	-0.04
718.509	-0.02
718.909	-0.02
719.309	-0.01
719.709	-0.04
720.109	-0.03
720.508	-0.04
720.908	-0.02
721.308	-0.03
721.708	-0.02
722.107	-0.03
722.507	-0.02
722.906	-0.03
723.306	-0.03
723.705	-0.03
724.105	-0.03
724.504	-0.05
724.903	-0.03
725.303	-0.04
725.702	-0.02
726.101	-0.05
726.5	-0.02
726.899	-0.04
727.298	-0.03
727.697	-0.04
728.096	-0.03
728.495	-0.03
728.893	-0.04
729.292	-0.03
729.691	-0.03
730.089	-0.04
730.488	-0.03
730.886	-0.03
731.285	-0.04
731.683	-0.04
732.082	-0.03
732.48	-0.05
732.878	-0.03
733.276	-0.03
733.674	-0.04
734.073	-0.04
734.471	-0.01
734.869	-0.04
735.267	-0.04
735.664	-0.05
736.062	-0.04
736.46	-0.04
736.858	-0.05
737.255	-0.04
737.653	-0.03
738.051	-0.04
738.448	-0.04
738.846	-0.04
739.243	-0.04
739.641	-0.04
740.038	-0.03
740.435	-0.04
740.832	-0.03
741.229	-0.04
741.627	-0.03
742.024	-0.04
742.421	-0.05
742.818	-0.04
743.215	-0.04
743.611	-0.04
744.008	-0.02
744.405	-0.04
744.802	-0.04
745.198	-0.02
745.595	-0.04
745.992	-0.03
746.388	-0.03
746.784	-0.03
747.181	-0.04
747.577	-0.04
747.973	-0.04
748.37	-0.03
748.766	-0.02
749.162	-0.07
749.558	-0.04
749.954	-0.01
750.35	-0.06
750.746	-0.03
751.142	-0.03
751.538	-0.06
751.934	-0.03
752.329	-0.05
752.725	-0.03
753.121	-0.03
753.516	-0.04
753.912	-0.05
754.307	-0.02
754.703	-0.05
755.098	-0.03
755.493	-0.05
755.889	-0.04
756.284	-0.04
756.679	-0.05
757.074	-0.03
757.469	-0.04
757.864	-0.06
758.259	-0.02
758.654	-0.04
759.049	-0.05
759.444	-0.04
759.839	-0.05
760.233	-0.07
760.628	-0.04
761.022	-0.05
761.417	-0.05
761.812	-0.05
762.206	-0.06
762.6	-0.05
762.995	-0.04
763.389	-0.07
763.783	-0.02
764.177	-0.06
764.572	-0.04
764.966	-0.07
765.36	-0.03
765.754	-0.05
766.148	-0.05
766.542	-0.05
766.935	-0.05
767.329	-0.03
767.723	-0.03
768.117	-0.06
768.51	-0.06
768.904	-0.04
769.297	-0.06
769.691	-0.03
770.084	-0.06
770.478	-0.04
770.871	-0.05
771.264	-0.07
771.658	-0.02
772.051	-0.05
772.444	-0.05
772.837	-0.06
773.23	-0.03
773.623	-0.06
774.016	-0.06
774.409	-0.04
774.802	-0.07
775.194	-0.05
775.587	-0.06
775.98	-0.06
776.372	-0.06
776.765	-0.05
777.157	-0.04
777.55	-0.07
777.942	-0.06
778.335	-0.04
778.727	-0.05
779.119	-0.01
779.511	-0.06
779.904	-0.07
780.296	-0.09
780.688	-0.07
781.08	-0.03
781.472	-0.05
781.864	-0.03
782.255	-0.05
782.647	-0.05
783.039	-0.05
783.431	-0.07
783.822	-0.08
784.214	-0.05
784.605	-0.05
784.997	-0.04
785.388	-0.03
785.78	-0.08
786.171	-0.06
786.562	-0.09
786.954	-0.04
787.345	-0.07
787.736	-0.08
788.127	-0.03
788.518	-0.09
788.909	-0.06
789.3	-0.08
789.691	-0.05
790.082	-0.07
790.473	-0.06
790.863	-0.06
791.254	-0.08
791.645	-0.08
792.035	-0.1
792.426	-0.06
792.816	-0.06
793.207	-0.06
793.597	-0.06
793.987	-0.08
794.378	-0.05
794.768	-0.11
795.158	-0.07
795.548	-0.07
795.938	-0.1
796.328	-0.06
796.718	-0.07
797.108	-0.1
797.498	-0.05
797.888	-0.09
798.278	-0.06
798.668	-0.1
799.057	-0.05
799.447	-0.09
799.836	-0.07
800.226	-0.06
800.615	-0.09
801.005	-0.06
801.394	-0.12
801.784	-0.06
802.173	-0.05
802.562	-0.1
802.951	-0.07
803.34	-0.08
803.729	-0.07
804.118	-0.1
804.507	-0.07
804.896	-0.05
805.285	-0.1
805.674	-0.12
806.063	-0.08
806.451	-0.05
806.84	-0.09
807.229	-0.1
807.617	-0.1
808.006	-0.11
808.394	-0.1
808.783	-0.09
809.171	-0.08
809.559	-0.1
809.948	-0.08
810.336	-0.12
810.724	-0.06
811.112	-0.14
811.5	-0.13
811.888	-0.07
812.276	-0.17
812.664	-0.08
813.052	-0.1
813.44	-0.1
813.828	-0.06
814.215	-0.04
814.603	-0.04
814.991	-0.09
815.378	-0.04
815.766	-0.11
816.153	-0.07
816.54	-0.12
816.928	-0.12
817.315	-0.09
817.702	-0.12
818.09	-0.11
818.477	-0.13
818.864	-0.06
819.251	-0.13
819.638	-0.06
820.025	-0.07
820.412	-0.04
820.799	-0.07
821.185	-0.06
821.572	-0.09
821.959	-0.11
822.346	-0.09
822.732	-0.06
823.119	-0.08
823.505	-0.1
823.892	-0.11
824.278	-0.07
824.664	-0.09
825.051	-0.05
825.437	-0.12
825.823	-0.1
826.209	0.01
826.595	-0.03
826.982	-0.1
827.368	-0.14
827.754	-0
828.139	-0.08
828.525	-0.09
828.911	-0.07
829.297	-0.1
829.683	-0.15
830.068	-0.09
830.454	-0.11
830.839	-0.08
831.225	-0.09
831.61	-0.1
831.996	-0.04
832.381	-0.05
832.766	-0.1
833.152	-0.13
833.537	-0.13
833.922	-0.1
834.307	-0.08
834.692	-0.13
835.077	-0.09
835.462	-0.11
835.847	-0.14
836.232	-0.07
836.617	-0.1
837.001	-0.14
837.386	-0.06
837.771	-0.09
838.155	-0.15
838.54	-0.14
838.925	-0.12
839.309	-0.11
839.693	-0.17
840.078	-0.09
840.462	-0.15
840.846	-0.1
841.231	-0.19
841.615	-0.17
841.999	-0.17
842.383	-0.17
842.767	-0.08
843.151	-0.19
843.535	-0.11
843.919	-0.07
844.302	-0.16
844.686	-0.12
845.07	-0.13
845.454	-0.11
845.837	-0.07
846.221	-0.12
846.604	-0.14
846.988	-0.08
847.371	-0.19
847.754	-0.08
848.138	-0.12
848.521	-0.16
848.904	-0.11
849.287	-0.12
849.671	-0.2
850.054	-0.19
850.437	-0.14
850.82	-0.18
851.202	-0.2
851.585	-0.19
851.968	-0.2
852.351	-0.23
852.734	-0.17
853.116	-0.09
853.499	-0.22
853.882	-0.18
854.264	-0.09
854.647	-0.16
855.029	-0.12
855.411	-0.15
855.794	-0.2
856.176	-0.21
856.558	-0.15
856.94	-0.24
857.322	-0.14
857.704	-0.11
858.087	-0.19
858.468	-0.15
858.85	-0.13
859.232	-0.22
859.614	-0.24
859.996	-0.12
860.378	-0.16
860.759	-0.15
861.141	-0.16
861.522	-0.14
861.904	-0.14
862.285	-0.12
862.667	-0.27
863.048	-0.05
863.43	-0.08
863.811	-0.21
864.192	-0.16
864.573	-0.17
864.954	-0.16
865.336	-0.18
865.717	-0.2
866.098	-0.18
866.479	-0.23
866.859	-0.18
867.24	-0.2
867.621	-0.18
868.002	-0.17
868.382	-0.14
868.763	-0.16
869.144	-0.06
869.524	-0.23
869.905	-0.21
870.285	-0.16
870.666	-0.12
871.046	-0.14
871.426	-0.07
871.806	-0.15
872.187	-0.12
872.567	-0.12
872.947	-0.07
873.327	-0.22
873.707	-0.16
874.087	-0.17
874.467	-0.15
874.847	-0.13
875.226	-0.17
875.606	-0.16
875.986	-0.21
876.366	-0.22
876.745	-0.13
877.125	-0.25
877.504	-0.14
877.884	-0.17
878.263	-0.2
878.642	-0.16
879.022	-0.18
879.401	-0.24
879.78	-0.18
880.159	-0.19
880.538	-0.2
880.918	-0.16
881.297	-0.25
881.675	-0.14
882.054	-0.27
882.433	-0.38
882.812	-0.13
883.191	-0.24
883.57	-0.13
883.948	-0.33
884.327	-0.16
884.705	-0.35
885.084	-0.28
885.462	-0.27
885.841	-0.27
886.219	-0.31
886.598	-0.32
886.976	-0.33
887.354	-0.22
887.732	-0.24
888.11	-0.17
888.488	-0.29
888.866	-0.31
889.244	-0.27
889.622	-0.17
890	-0.28
890.378	-0.31
890.756	-0.43
891.134	-0.39
891.511	-0.35
891.889	-0.31
892.267	-0.15
892.644	-0.19
893.022	-0.27
893.399	-0.34
893.776	-0.32
894.154	-0.48
894.531	-0.34
894.908	-0.34
895.286	-0.25
895.663	-0.28
896.04	-0.38
896.417	-0.43
896.794	-0.49
897.171	-0.18
897.548	-0.34
897.925	-0.17
898.301	-0.35
898.678	-0.44
899.055	-0.43
899.432	-0.61
899.808	-0.39
900.185	-0.31
900.561	-0.28
900.938	-0.37
901.314	-0.34
901.69	-0.33
902.067	-0.41
902.443	-0.52
902.819	-0.34
903.195	-0.46
903.572	-0.54
903.948	-0.42
904.324	-0.42
904.7	-0.36
905.076	-0.35
905.451	-0.48
905.827	-0.49
906.203	-0.29
906.579	-0.59
906.955	-0.42
907.33	-0.21
907.706	-0.38
908.081	-0.41
908.457	-0.49
908.832	-0.54
909.208	-0.42
909.583	-0.43
909.958	-0.64
910.334	-0.47
910.709	-0.6
911.084	-0.49
911.459	-0.54
911.834	-0.39
912.209	-0.38
912.584	-0.45
912.959	-0.54
913.334	-0.53
913.709	-0.65
914.083	-0.35
914.458	-0.64
914.833	-0.54
915.207	-0.71
915.582	-0.75
915.956	-0.47
916.331	-0.54
916.705	-0.4
917.08	-0.71
917.454	-0.34
917.828	-0.47
918.203	-0.64
918.577	-0.58
918.951	-0.57
919.325	-0.08
919.699	-0.68
920.073	-0.4
920.447	-0.53
920.821	-0.56
921.195	-0.27
921.568	-0.58
921.942	-0.44
922.316	-0.59
922.689	-0.63
923.063	-0.81
923.437	-0.91
923.81	-0.64
924.184	-0.42
924.557	-1.03
924.93	-0.8
925.304	-0.98
925.677	-0.84
926.05	-0.6
926.423	-0.35
926.796	-1
927.169	-0.7
927.542	-1.08
927.915	-0.65
928.288	-0.65
928.661	-0.7
929.034	-0.43
929.407	-0.99
929.78	-1.11
930.152	-0.76
930.525	-0.8
930.897	-0.41
931.27	-0.68
931.642	-0.46
932.015	-0.79
932.387	-0.64
932.76	-1.05
933.132	-0.89
933.504	-1.22
933.876	-0.74
934.249	-1.05
934.621	-0.85
934.993	-1.55
935.365	-1.04
935.737	-0.36
936.109	-1.59
936.48	-1.19
936.852	-1.49
937.224	-2.1
937.596	-0.97
937.967	-1.91
938.339	-2.02
938.711	-2.09
939.082	-3.06
939.454	-2.21
939.825	-1.51
940.196	-1.91
940.568	-0.17
940.939	-2.8
941.31	-2.75
941.681	-1.62
942.052	-2.91
942.424	-2.57
942.795	-1.94
943.166	-2.17
943.537	-2.32
943.907	-2.41
944.278	-2.06
944.649	-2.54
945.02	-3.64
945.391	-2.22
945.761	-2.24
946.132	-3.86
946.502	-3.26
946.873	-3.15
947.243	-2.82
947.614	-3.92
947.984	-2.55
948.354	-3.92
948.725	-2.75
949.095	-2.62
949.465	-2.48
949.835	-1.98
950.205	-1.85
950.575	-2.29
950.945	-2.87
951.315	-2.03
951.685	-2.19
952.055	-2.33
952.425	-2.15
952.794	-3.14
953.164	-2.11
953.534	-2
953.903	-2.51
954.273	-2.36
954.642	-2.17
955.012	-1.44
955.381	-1.37
955.751	-2.42
956.12	-2.9
956.489	-1.35
956.859	-3.15
957.228	-3.06
957.597	-2.39
957.966	-1.74
958.335	-2.87
958.704	-2.37
959.073	-2.12
959.442	-3.3
959.811	-4.19
960.179	-2.65
960.548	-5.02
960.917	-4.23
961.285	-2.34
961.654	-1.31
962.023	-3.62
962.391	-3.34
962.759	-1.93
963.128	-2.9
963.496	-3.3
963.865	-4.34
964.233	-3.85
964.601	-3.2
964.969	-3.75
965.337	-2.66
965.705	-3.95
966.073	-3.77
966.441	-3.31
966.809	-5.82
967.177	-3.75
967.545	-3.35
967.913	-4.69
968.28	-3.89
968.648	-4.35
969.016	-2.75
969.383	-3.65
969.751	-4.48
970.118	-1.73
970.486	-5.6
970.853	-2.27
971.221	-4.15
971.588	-1.38
971.955	-6.69
972.322	-5.89
972.69	-5.18
973.057	-5.21
973.424	-5.31
973.791	-8.62
974.158	-2.39
974.525	-5.92
974.892	-3.94
975.258	-3.74
975.625	-7.85
975.992	-5.96
976.359	-4.97
976.725	-11.55
977.092	-5.52
977.458	-4.82
977.825	-7.49
978.191	-8.61
978.558	-9.11
978.924	-7.81
979.29	-5.92
979.657	-9.71
980.023	-10.67
980.389	-11.83
980.755	-8.73
981.121	-7.84
981.487	-9.6
981.853	-13.39
982.219	-11.92
982.585	-18.09
982.951	-5.65
983.317	-9.3
983.682	-12.6
984.048	-14.97
984.414	-12.53
984.779	-8.65
985.145	-16.55
985.51	-11.84
985.876	-20.8
986.241	-19.76
986.607	-18.06
986.972	-14.37
987.337	-22.42
987.702	-8.53
988.068	-16.42
988.433	-14.4
988.798	-24.52
989.163	-23.31
989.528	-24.68
989.893	-22.02
990.258	-23.73
990.622	-14.15
990.987	-34.64
991.352	-29.89
991.717	-34.62
992.081	-35.2
992.446	-45.62
992.811	-25.06
993.175	-22.73
993.539	-27.1
993.904	-41.12
994.268	-22.94
994.633	-23.87
994.997	-24.64
995.361	-35.04
995.725	-41.18
996.089	-26.73
996.453	-45.96
996.818	-41.94
997.182	-58.6
997.545	-52.68
997.909	-46.31
998.273	-34.64
998.637	-46.13
999.001	-25.15
999.364	-47.72
999.728	-69.06
1000.092	-23.47
1000.455	-51.02
1000.819	-33.71
1001.182	-50.74
1001.546	-58.86
1001.909	-38.2
1002.272	-50.79
1002.636	-58.99
1002.999	-69.52
1003.362	-54.37
1003.725	-62.6
1004.088	-69.63
1004.451	-79.08
1004.814	-44.23
1005.177	-68.46
1005.54	-46.89
1005.903	-45.99
1006.266	-64.03
1006.629	-68.06
1006.991	-63.06
1007.354	-63.59
1007.717	-34.08
1008.079	-70.51
1008.442	-64.88
1008.804	-39.79
1009.167	-70.09
1009.529	-62.33
1009.891	-66.98
1010.254	-67.13
1010.616	-59.88
1010.978	-34.71
1011.34	-47.19
1011.702	-51.76
1012.065	-48.42
1012.427	-80.55
1012.789	-55.37
1013.15	-65.28
1013.512	-52.59
1013.874	-53.75
1014.236	-69.86
1014.598	-81.58
1014.959	-82.71
1015.321	-57.13
1015.683	-98.28
1016.044	-73.79
1016.406	-54.76
1016.767	-48.88
1017.128	-62.52
1017.49	-66.72
1017.851	-55.08
1018.212	-66.83
1018.574	-73.15
1018.935	-66.79
1019.296	-54.95
1019.657	-34.78
1020.018	-57.28
1020.379	-48.76
1020.74	-57.97
1021.101	-52.33
1021.462	-33.83
1021.822	-69.81
1022.183	-49.35
1022.544	-48.15
1022.905	-65.18
1023.265	-60.75
1023.626	-101.03
1023.986	-61.06
1024.347	-63.41
1024.707	-38.78
1025.068	-70.7
1025.428	-52.2
1025.788	-53.18
1026.148	-34.98
1026.509	-33.67
1026.869	-35.05
1027.229	-60.75
1027.589	-26.8
1027.949	-66.69
1028.309	-55.88
1028.669	-64.46
1029.029	-43.12
1029.388	-32.35
1029.748	-26.27
1030.108	-27.31
1030.468	-28.86
1030.827	-38.89
1031.187	-47.95
1031.546	-43.34
1031.906	-45.77
1032.265	-60.63
1032.625	-42.51
1032.984	-54.75
1033.343	-44.51
1033.703	-50.38
1034.062	-20.96
1034.421	-27.69
1034.78	-38.02
1035.139	-24.5
1035.498	-51.65
1035.857	-40.99
1036.216	-32.67
1036.575	-38.22
1036.934	-19.83
1037.293	-61.35
1037.651	-24.96
1038.01	-28.01
1038.369	-31.15
1038.727	-31.2
1039.086	-23.42
1039.444	-28.26
1039.803	-24.95
1040.161	-25.32
1040.52	-21.68
1040.878	-13.69
1041.236	-19.43
